"Distance[m]" "Pseudodepth[m]" "Apparent resistivity[ohmm]"
180 120 140.618
200 120 141.749
220 120 129.610
150 100 98.520
170 100 98.018
190 100 102.416
210 100 115.296
230 100 117.967
250 100 100.719
120 80 79.319
140 80 72.885
160 80 80.425
180 80 80.927
200 80 75.901
220 80 87.713
240 80 87.261
260 80 118.375
280 80 98.043
90 60 55.323
270 60 109.516
110 60 60.356
290 60 138.733
130 60 57.981
310 60 107.819
150 60 61.186
170 60 69.442
190 60 71.251
210 60 85.388
230 60 73.890
250 60 90.478
60 40 37.837
180 40 77.032
300 40 218.906
80 40 34.067
200 40 90.855
320 40 211.241
100 40 41.670
220 40 111.338
340 40 186.234
120 40 36.355
240 40 129.308
140 40 42.851
260 40 140.995
160 40 54.664
280 40 186.736
30 20 26.955
90 20 33.804
150 20 99.651
210 20 147.341
270 20 336.779
330 20 307.876
50 20 18.868
110 20 50.328
170 20 99.588
230 20 232.352
290 20 285.257
350 20 515.221
70 20 20.873
130 20 57.805
190 20 153.184
250 20 208.225
310 20 414.690
370 20 522.761
145 30 53.250
235 30 163.803
155 30 57.491
245 30 175.772
165 30 65.596
255 30 202.821
175 30 79.262
185 30 99.903
195 30 108.385
205 30 114.605
215 30 129.968
225 30 163.897
140 20 73.639
200 20 162.923
260 20 234.111
160 20 103.170
220 20 158.839
180 20 112.155
240 20 251.327
122.5 15 89.347
167.5 15 158.666
212.5 15 163.897
257.5 15 228.080
127.5 15 99.997
172.5 15 158.383
217.5 15 163.850
262.5 15 290.754
132.5 15 104.662
177.5 15 174.311
222.5 15 183.076
267.5 15 325.626
137.5 15 129.167
182.5 15 162.625
227.5 15 204.518
272.5 15 368.509
142.5 15 133.266
187.5 15 166.112
232.5 15 246.929
277.5 15 385.473
147.5 15 156.074
192.5 15 166.913
237.5 15 251.642
152.5 15 147.592
197.5 15 180.390
242.5 15 262.951
157.5 15 146.508
202.5 15 181.615
247.5 15 234.677
162.5 15 142.880
207.5 15 171.625
252.5 15 236.562
115 10 152.681
145 10 298.451
175 10 280.858
205 10 181.584
235 10 227.451
265 10 305.991
120 10 179.385
150 10 366.938
180 10 233.734
210 10 174.673
240 10 235.619
270 10 362.540
125 10 173.730
155 10 333.009
185 10 206.717
215 10 172.159
245 10 236.248
275 10 346.204
130 10 209.230
160 10 335.522
190 10 191.009
220 10 177.186
250 10 253.841
280 10 365.996
135 10 237.190
165 10 304.734
195 10 206.717
225 10 191.637
255 10 268.920
285 10 409.664
140 10 314.159
170 10 334.265
200 10 198.863
230 10 215.513
260 10 263.894
107.5 5 605.228
122.5 5 518.049
137.5 5 876.504
152.5 5 1595.929
167.5 5 775.973
182.5 5 502.655
197.5 5 318.243
212.5 5 241.903
227.5 5 272.062
242.5 5 273.633
257.5 5 321.228
272.5 5 519.934
287.5 5 487.575
112.5 5 607.270
127.5 5 515.064
142.5 5 1190.664
157.5 5 1234.646
172.5 5 681.726
187.5 5 371.336
202.5 5 276.460
217.5 5 219.283
232.5 5 311.332
247.5 5 302.221
262.5 5 339.920
277.5 5 548.993
292.5 5 394.270
117.5 5 518.206
132.5 5 623.292
147.5 5 1313.186
162.5 5 1168.672
177.5 5 492.602
192.5 5 358.142
207.5 5 247.872
222.5 5 261.223
237.5 5 332.695
252.5 5 258.553
267.5 5 518.991
282.5 5 512.708
280 120 123.653
300 120 136.471
320 120 135.340
270 100 99.620
290 100 104.615
310 100 110.898
330 100 118.815
350 100 110.113
300 80 90.025
320 80 98.621
340 80 109.579
360 80 116.616
380 80 106.814
370 60 199.240
390 60 153.624
410 60 164.745
330 60 110.647
350 60 124.030
400 40 317.050
420 40 236.499
440 40 251.579
360 40 225.315
380 40 383.777
430 20 631.460
390 20 642.770
450 20 612.611
410 20 578.053
470 20 669.788
335 30 317.050
345 30 303.289
265 30 190.381
355 30 337.690
275 30 222.802
285 30 243.631
295 30 291.885
305 30 274.073
315 30 290.660
325 30 261.726
300 20 339.292
360 20 466.212
320 20 338.035
280 20 320.442
340 20 419.717
312.5 15 410.920
357.5 15 538.155
317.5 15 386.416
362.5 15 540.511
322.5 15 380.761
367.5 15 584.336
282.5 15 359.084
327.5 15 387.358
372.5 15 784.613
287.5 15 283.686
332.5 15 344.004
377.5 15 841.633
292.5 15 328.925
337.5 15 44.956
297.5 15 208.288
342.5 15 246.929
302.5 15 77.142
347.5 15 538.155
307.5 15 423.173
352.5 15 552.292
305 10 504.854
335 10 356.257
365 10 667.274
310 10 384.531
340 10 481.606
370 10 747.071
315 10 356.885
345 10 493.858
375 10 985.832
290 10 362.540
320 10 436.681
350 10 502.341
380 10 1185.009
295 10 331.124
325 10 434.796
355 10 559.832
385 10 1256.637
300 10 468.726
330 10 355.628
360 10 654.080
297.5 5 535.013
312.5 5 425.215
327.5 5 370.708
342.5 5 631.460
357.5 5 597.531
372.5 5 948.761
387.5 5 2095.442
302.5 5 505.168
317.5 5 439.823
332.5 5 432.283
347.5 5 479.093
362.5 5 604.757
377.5 5 1687.035
392.5 5 1705.885
307.5 5 553.077
322.5 5 413.434
337.5 5 389.243
352.5 5 640.885
367.5 5 788.540
382.5 5 1426.283
380 120 133.304
400 120 147.027
420 120 163.237
370 100 114.982
390 100 123.465
410 100 134.774
430 100 152.681
450 100 152.367
400 80 129.936
420 80 147.781
440 80 152.807
460 80 160.850
480 80 164.117
470 60 238.824
490 60 315.919
510 60 262.763
430 60 175.678
450 60 209.042
500 40 351.481
520 40 420.345
540 40 541.611
460 40 532.814
480 40 453.897
530 20 869.593
490 20 788.540
550 20 863.310
510 20 596.903
570 20 899.124
435 30 450.504
445 30 467.469
365 30 296.409
455 30 508.938
375 30 380.761
385 30 454.274
395 30 525.903
405 30 409.035
415 30 435.425
425 30 331.564
400 20 620.779
460 20 657.221
420 20 519.619
380 20 521.504
440 20 684.867
412.5 15 570.199
457.5 15 856.241
417.5 15 562.659
462.5 15 834.093
422.5 15 551.350
467.5 15 966.040
382.5 15 807.703
427.5 15 635.230
472.5 15 867.080
387.5 15 709.215
432.5 15 609.783
477.5 15 820.898
392.5 15 676.228
437.5 15 767.177
397.5 15 753.040
442.5 15 738.431
402.5 15 852.000
447.5 15 811.002
407.5 15 771.889
452.5 15 775.188
405 10 1111.810
435 10 519.619
465 10 1300.619
410 10 738.903
440 10 785.398
470 10 1128.460
415 10 499.199
445 10 985.203
475 10 1103.327
390 10 1039.867
420 10 516.478
450 10 867.080
480 10 1176.841
395 10 1016.619
425 10 589.363
455 10 833.779
485 10 1063.743
400 10 1107.097
430 10 512.708
460 10 1202.916
397.5 5 1583.363
412.5 5 791.681
427.5 5 571.299
442.5 5 936.195
457.5 5 1002.168
472.5 5 1771.858
487.5 5 1630.487
402.5 5 1690.177
417.5 5 515.221
432.5 5 656.593
447.5 5 826.239
462.5 5 1611.637
477.5 5 1878.672
492.5 5 1357.168
407.5 5 973.894
422.5 5 597.845
437.5 5 604.757
452.5 5 1124.690
467.5 5 1498.540
482.5 5 1862.964
480 120 194.527
500 120 223.556
520 120 223.933
470 100 159.279
490 100 180.327
510 100 195.093
530 100 186.925
550 100 232.164
500 80 203.324
520 80 213.880
540 80 204.078
560 80 237.504
580 80 282.743
570 60 353.241
590 60 441.080
610 60 335.522
530 60 257.108
550 60 341.365
600 40 692.407
620 40 586.850
640 40 844.460
560 40 618.265
580 40 580.566
630 20 1632.372
590 20 1066.257
650 20 2019.416
610 20 1302.504
670 20 2513.274
535 30 786.026
545 30 782.257
465 30 510.823
555 30 640.885
475 30 716.283
485 30 610.726
495 30 518.363
505 30 437.310
515 30 465.584
525 30 591.876
500 20 644.655
560 20 897.239
520 20 713.770
480 20 824.982
540 20 859.540
512.5 15 738.903
557.5 15 997.142
517.5 15 855.770
562.5 15 1038.611
522.5 15 805.347
567.5 15 1111.181
482.5 15 861.425
527.5 15 897.239
572.5 15 1047.093
487.5 15 938.237
532.5 15 892.526
577.5 15 984.889
492.5 15 852.942
537.5 15 1009.394
497.5 15 738.903
542.5 15 985.832
502.5 15 652.666
547.5 15 1048.978
507.5 15 664.447
552.5 15 930.226
505 10 642.142
535 10 1066.257
565 10 1242.186
510 10 689.265
540 10 1250.354
570 10 1306.903
515 10 794.195
545 10 1306.903
575 10 1269.203
490 10 965.097
520 10 983.319
550 10 1213.911
580 10 1222.708
495 10 856.084
525 10 976.407
555 10 999.026
585 10 1101.442
500 10 733.876
530 10 1059.345
560 10 1209.513
497.5 5 1024.159
512.5 5 653.451
527.5 5 1190.664
542.5 5 2415.885
557.5 5 1611.637
572.5 5 1595.929
587.5 5 1787.566
502.5 5 703.717
517.5 5 801.106
532.5 5 2183.407
547.5 5 1705.885
562.5 5 2073.451
577.5 5 2114.292
592.5 5 1712.168
507.5 5 617.637
522.5 5 1077.566
537.5 5 1514.248
552.5 5 2079.734
567.5 5 1969.779
582.5 5 1545.664
580 120 235.996
600 120 229.588
620 120 268.418
570 100 235.619
590 100 207.345
610 100 224.310
630 100 236.248
650 100 263.894
600 80 239.515
620 80 263.391
640 80 262.637
660 80 264.899
680 80 294.053
670 60 443.530
690 60 387.358
710 60 504.226
630 60 394.144
650 60 436.556
700 40 726.336
720 40 1049.292
740 40 1271.717
660 40 967.611
680 40 904.779
730 20 2915.398
690 20 2349.911
750 20 2563.540
710 20 2689.203
770 20 2576.106
635 30 1002.796
645 30 1183.752
565 30 752.097
655 30 1442.934
575 30 784.142
585 30 777.544
595 30 893.469
605 30 1032.956
615 30 957.557
625 30 1042.380
600 20 1188.779
660 20 2395.150
620 20 1653.734
580 20 1048.035
640 20 1712.796
612.5 15 1505.137
657.5 15 3072.478
617.5 15 1728.504
662.5 15 3185.575
622.5 15 1702.586
667.5 15 3364.646
582.5 15 1135.215
627.5 15 1960.354
672.5 15 3157.301
587.5 15 1281.299
632.5 15 2167.699
677.5 15 3374.071
592.5 15 1268.104
637.5 15 2375.044
597.5 15 1206.372
642.5 15 2205.398
602.5 15 1264.805
647.5 15 2695.486
607.5 15 1355.754
652.5 15 2855.708
605 10 1372.876
635 10 2840.000
665 10 4046.371
610 10 1683.894
640 10 3204.425
670 10 4571.017
615 10 1558.230
645 10 3330.088
675 10 4586.725
590 10 1470.265
620 10 1592.787
650 10 3744.778
680 10 3926.991
595 10 1407.434
625 10 2287.079
655 10 4907.168
685 10 3512.301
600 10 1129.717
630 10 2305.929
660 10 4687.256
597.5 5 1379.159
612.5 5 1960.354
627.5 5 2588.672
642.5 5 5215.044
657.5 5 7131.415
672.5 5 6597.345
687.5 5 3744.778
602.5 5 1382.301
617.5 5 1925.796
632.5 5 3116.460
647.5 5 4825.486
662.5 5 7476.991
677.5 5 5431.814
692.5 5 3678.805
607.5 5 1564.513
622.5 5 2456.725
637.5 5 3458.894
652.5 5 6848.672
667.5 5 7068.583
682.5 5 4407.654
680 120 255.977
700 120 275.204
720 120 265.402
670 100 221.796
690 100 268.292
710 100 309.133
730 100 279.916
750 100 236.876
700 80 321.699
720 80 361.660
740 80 355.377
760 80 377.242
780 80 369.451
770 60 634.476
790 60 570.765
810 60 578.870
730 60 553.046
750 60 583.017
800 40 1181.239
820 40 1344.602
840 40 1185.009
760 40 1050.549
780 40 1040.495
830 20 2376.929
790 20 2249.380
850 20 2244.354
810 20 1886.212
870 20 2487.513
735 30 1865.164
755 30 1509.849
705 30 1419.372
712.5 15 3138.451
757.5 15 3911.283
717.5 15 3496.593
762.5 15 3477.743
767.5 15 3119.602
682.5 15 3138.451
727.5 15 4608.716
772.5 15 3308.097
732.5 15 3920.708
777.5 15 2789.734
697.5 15 3204.425
742.5 15 3779.336
747.5 15 3901.858
705 10 3575.132
765 10 3895.575
710 10 3857.876
740 10 5384.690
770 10 3908.141
775 10 3883.009
690 10 3408.628
720 10 5057.964
750 10 7439.291
780 10 3122.743
755 10 6496.814
785 10 2902.832
700 10 3839.026
730 10 7577.521
760 10 4492.477
697.5 5 3751.062
712.5 5 6107.256
742.5 5 8482.300
757.5 5 7476.991
772.5 5 5127.079
787.5 5 3989.823
702.5 5 3579.845
717.5 5 7131.415
747.5 5 10273.008
762.5 5 6276.902
777.5 5 5039.115
792.5 5 3113.318
707.5 5 4825.486
752.5 5 8419.468
767.5 5 7194.247
782.5 5 3330.088
780 120 348.717
800 120 326.851
820 120 243.536
770 100 275.832
790 100 306.619
810 100 308.819
830 100 276.460
850 100 471.867
800 80 365.933
820 80 329.742
840 80 353.869
860 80 785.398
880 80 496.372
870 60 942.478
890 60 957.557
910 60 1027.301
830 60 606.579
850 60 732.305
900 40 1688.920
920 40 1642.425
940 40 1902.549
860 40 1334.549
880 40 1673.841
930 20 3367.787
890 20 2990.796
950 20 4410.796
910 20 2576.106
970 20 4750.088
835 30 1777.513
845 30 1822.752
765 30 1475.920
855 30 1803.903
775 30 1502.310
785 30 1937.734
795 30 1699.287
805 30 1743.584
815 30 1673.841
825 30 1664.416
800 20 2357.451
860 20 2651.504
820 20 2004.964
780 20 2544.690
840 20 2390.752
812.5 15 2195.973
857.5 15 3053.628
817.5 15 2214.823
862.5 15 3355.221
822.5 15 2384.469
867.5 15 3223.274
782.5 15 2554.115
827.5 15 2478.717
872.5 15 2968.805
787.5 15 2309.071
832.5 15 2375.044
877.5 15 2987.655
792.5 15 2676.637
837.5 15 2704.911
797.5 15 2450.442
842.5 15 2591.814
802.5 15 2356.194
847.5 15 2591.814
807.5 15 2205.398
852.5 15 2516.416
805 10 2362.478
835 10 2877.699
865 10 4850.619
810 10 2494.425
840 10 2519.557
870 10 4448.495
815 10 2783.451
845 10 3311.239
875 10 3185.575
790 10 2720.619
820 10 2463.009
850 10 3521.725
880 10 4209.734
795 10 2965.663
825 10 2343.628
855 10 2871.416
885 10 4806.637
800 10 2682.920
830 10 2783.451
860 10 3185.575
797.5 5 4429.646
812.5 5 3031.637
827.5 5 3047.345
842.5 5 4040.088
857.5 5 3970.973
872.5 5 5196.194
887.5 5 7634.070
802.5 5 3063.053
817.5 5 2632.655
832.5 5 4118.628
847.5 5 4203.451
862.5 5 6660.176
877.5 5 5846.504
892.5 5 8482.300
807.5 5 3085.044
822.5 5 3471.460
837.5 5 3515.442
852.5 5 5954.889
867.5 5 5642.300
882.5 5 7445.575
880 120 338.538
900 120 332.129
920 120 353.241
870 100 287.456
890 100 395.841
910 100 390.500
930 100 399.296
950 100 368.195
900 80 469.731
920 80 514.970
940 80 509.692
960 80 553.674
980 80 616.003
970 60 1029.186
990 60 1285.540
1010 60 1195.062
930 60 776.602
950 60 821.841
1000 40 2617.575
1020 40 2664.071
1040 40 2646.478
960 40 2083.504
980 40 2579.876
1030 20 6553.362
990 20 6327.168
1050 20 7200.530
1010 20 6427.699
1070 20 7414.159
935 30 2902.832
945 30 3293.960
955 30 3667.181
885 30 2231.787
895 30 2266.659
905 30 2082.876
915 30 2224.248
925 30 2429.708
900 20 3091.327
960 20 4599.292
920 20 2877.699
880 20 2664.071
940 20 3970.973
912.5 15 2921.681
957.5 15 5013.982
917.5 15 3251.548
962.5 15 5560.619
922.5 15 3086.615
967.5 15 5947.035
882.5 15 2912.256
927.5 15 3562.566
972.5 15 7049.734
887.5 15 3449.469
932.5 15 3619.115
977.5 15 7012.035
892.5 15 3788.761
937.5 15 4071.504
897.5 15 3487.168
942.5 15 4599.292
902.5 15 3072.478
947.5 15 5268.451
907.5 15 3223.274
952.5 15 5357.986
905 10 3685.088
935 10 4454.778
965 10 7627.787
910 10 3543.717
940 10 5629.734
970 10 9880.309
915 10 3537.433
945 10 5786.814
975 10 9845.751
890 10 4266.283
920 10 3983.539
950 10 7081.150
980 10 9983.981
895 10 3700.796
925 10 4241.150
955 10 7219.380
985 10 9795.486
900 10 4115.486
930 10 4423.362
960 10 7043.451
897.5 5 7382.743
912.5 5 7696.902
927.5 5 7382.743
942.5 5 13069.025
957.5 5 15519.468
972.5 5 19980.529
987.5 5 22965.042
902.5 5 7791.150
917.5 5 5007.699
932.5 5 10241.592
947.5 5 12315.043
962.5 5 14137.167
977.5 5 21991.149
992.5 5 21645.573
907.5 5 5045.398
922.5 5 8325.221
937.5 5 9267.698
952.5 5 14451.326
967.5 5 18503.981
982.5 5 24378.759
980 120 581.320
1000 120 610.349
1020 120 405.265
970 100 546.009
990 100 497.628
1010 100 972.637
1030 100 379.504
1050 100 476.580
1000 80 713.519
1020 80 979.172
1040 80 588.106
1060 80 609.972
1080 80 963.087
1070 60 1357.168
1090 60 1687.035
1110 60 1758.664
1030 60 1330.779
1050 60 1055.575
1100 40 3570.106
1120 40 3560.053
1140 40 3870.442
1060 40 3120.230
1080 40 3446.955
1130 20 8532.566
1090 20 8689.645
1150 20 8683.362
1110 20 7979.645
1170 20 8124.159
1035 30 4542.743
1045 30 4731.239
965 30 3055.513
1055 30 4900.885
975 30 3313.752
985 30 4014.955
995 30 4260.000
1005 30 4373.097
1015 30 3958.407
1025 30 3958.407
1000 20 6396.283
1060 20 7539.822
1020 20 6144.955
980 20 5617.168
1040 20 7376.460
1012.5 15 7483.274
1057.5 15 8892.278
1017.5 15 7643.495
1062.5 15 10103.362
1022.5 15 7605.796
1067.5 15 10225.884
982.5 15 7228.805
1027.5 15 7417.300
1072.5 15 10847.919
987.5 15 6936.637
1032.5 15 7869.690
1077.5 15 9990.265
992.5 15 7803.716
1037.5 15 8703.782
997.5 15 7850.840
1042.5 15 9877.167
1002.5 15 7926.238
1047.5 15 9132.610
1007.5 15 7520.973
1052.5 15 8736.769
1005 10 9405.928
1035 10 10725.397
1065 10 14953.981
1010 10 9198.583
1040 10 12340.176
1070 10 14702.654
1015 10 10609.158
1045 10 12534.955
1075 10 14702.654
990 10 9789.203
1020 10 9550.442
1050 10 12154.822
1080 10 15456.636
995 10 11510.795
1025 10 9456.194
1055 10 12289.910
1085 10 15896.459
1000 10 10910.751
1030 10 9641.548
1060 10 14702.654
997.5 5 21834.069
1012.5 5 18582.521
1027.5 5 16744.689
1042.5 5 24001.768
1057.5 5 23279.202
1072.5 5 21299.998
1087.5 5 23310.617
1002.5 5 19634.954
1017.5 5 15645.131
1032.5 5 18786.724
1047.5 5 22682.299
1062.5 5 22116.812
1077.5 5 24975.662
1092.5 5 23561.945
1007.5 5 17168.804
1022.5 5 16838.937
1037.5 5 19760.618
1052.5 5 22368.140
1067.5 5 23813.272
1082.5 5 21739.821
1080 120 429.770
1100 120 397.726
1120 120 425.623
1070 100 392.699
1090 100 441.708
1110 100 524.018
1130 100 497.628
1150 100 902.580
1100 80 742.924
1120 80 815.557
1140 80 733.876
1160 80 933.933
1180 80 788.665
1170 60 1719.080
1190 60 1753.009
1210 60 1894.380
1130 60 1585.248
1150 60 1394.867
1200 40 4272.566
1220 40 4179.575
1240 40 3699.540
1160 40 3808.867
1180 40 4071.504
1230 20 9669.822
1190 20 9418.495
1250 20 7590.088
1210 20 8953.539
1270 20 9575.574
1180 120 822.972
1200 120 533.442
1220 120 474.255
1170 100 561.403
1190 100 557.947
1210 100 739.845
1230 100 553.863
1250 100 797.965
1200 80 784.812
1220 80 886.934
1240 80 899.752
1260 80 1387.327
1280 80 1389.841
1270 60 2474.947
1290 60 2676.637
1310 60 2267.602
1230 60 1673.841
1250 60 1753.009
1300 40 4987.592
1320 40 4344.194
1340 40 4095.380
1260 40 3855.363
1280 40 4567.876
1330 20 7822.566
1290 20 7257.079
1350 20 8796.459
1310 20 9336.813
1370 20 8708.495
1280 120 784.142
1300 120 949.641
1320 120 1080.457
1270 100 914.832
1290 100 1231.504
1310 100 936.823
1330 100 790.425
1350 100 268.606
1300 80 1296.849
1320 80 1500.425
1340 80 995.257
1360 80 691.653
1380 80 1218.938
1370 60 1690.805
1390 60 2488.141
1410 60 2516.416
1330 60 1900.035
1350 60 1621.062
1400 40 4535.203
1420 40 4546.513
1440 40 3910.655
1360 40 3808.867
1380 40 4878.265
1430 20 6848.672
1390 20 7772.300
1450 20 9475.043
1410 20 9229.999
1470 20 6836.106
1270 7 20539.733
1380 120 1651.221
1400 120 622.035
1420 120 639.377
1370 100 746.861
1390 100 949.389
1410 100 992.743
1430 100 804.248
1450 100 540.354
1400 80 924.382
1420 80 1153.593
1440 80 854.262
1460 80 962.584
1480 80 1020.389
1470 60 2228.018
1490 60 1971.664
1510 60 1930.195
1430 60 1851.026
1450 60 1830.292
1500 40 4040.088
1520 40 3727.186
1540 40 3631.681
1460 40 4022.495
1480 40 4027.522
1530 20 5780.530
1490 20 7596.371
1550 20 6609.911
1510 20 6666.460
1570 20 6421.415
1480 120 511.200
1500 120 721.561
1520 120 570.765
1470 100 586.535
1490 100 798.593
1510 100 928.655
1530 100 622.035
1550 100 684.867
1500 80 1191.292
1520 80 1392.354
1540 80 1271.717
1560 80 914.580
1580 80 1055.575
1570 60 1928.310
1590 60 2086.646
1610 60 1900.035
1530 60 2735.071
1550 60 1967.894
1600 40 3325.062
1620 40 3744.778
1640 40 3963.433
1560 40 4035.062
1580 40 3681.947
1630 20 6389.999
1590 20 6289.468
1650 20 5303.008
1610 20 5799.380
1670 20 6119.822
1580 120 402.250
1600 120 620.904
1620 120 976.407
1570 100 659.734
1590 100 920.172
1610 100 1080.708
1630 100 719.425
1650 100 747.071
1600 80 1309.416
1620 80 1130.973
1640 80 1017.876
1660 80 1166.159
1680 80 1384.814
1670 60 2088.531
1690 60 2058.372
1710 60 2454.212
1630 60 1760.549
1650 60 2020.672
1700 40 3113.947
1720 40 3641.734
1740 40 3351.451
1660 40 3514.814
1680 40 3347.681
1730 20 5466.371
1690 20 5579.469
1750 20 3443.186
1710 20 4473.628
1770 20 3857.876
1680 120 863.310
1700 120 525.903
1720 120 540.982
1670 100 852.314
1690 100 836.606
1710 100 895.354
1730 100 747.071
1750 100 1696.460
1700 80 1550.690
1720 80 1246.584
1740 80 1128.460
1760 80 2241.841
1780 80 2106.124
1770 60 2932.991
1790 60 2439.133
1810 60 2467.407
1730 60 2028.212
1750 60 1875.531
1800 40 3771.168
1820 40 2659.044
1840 40 3103.894
1760 40 2734.442
1780 40 3110.177
1830 20 4002.389
1790 20 4165.752
1850 20 4222.301
1810 20 4096.637
1870 20 3663.097
1780 120 801.860
1800 120 963.589
1820 120 434.671
1770 100 891.898
1790 100 819.642
1810 100 1116.836
1830 100 995.885
1850 100 904.779
1800 80 1337.062
1820 80 1545.664
1840 80 1163.646
1860 80 2548.460
1880 80 1048.035
1870 60 2982.000
1890 60 3234.584
1910 60 1924.540
1830 60 2303.416
1850 60 2252.522
1900 40 3512.301
1920 40 3271.026
1940 40 2935.504
1860 40 3087.557
1880 40 3512.301
1930 20 4756.371
1890 20 3883.009
1950 20 5793.097
1910 20 3870.442
1970 20 4951.150
1880 120 618.265
1900 120 972.637
1920 120 983.947
1870 100 961.327
1890 100 920.487
1910 100 992.743
1930 100 1194.434
1950 100 1501.681
1900 80 1115.894
1920 80 2435.363
1940 80 1611.009
1960 80 1206.372
1980 80 1749.239
1970 60 2246.867
1990 60 2910.371
2010 60 2716.221
1930 60 2162.044
1950 60 2278.911
2000 40 3924.478
2020 40 3309.982
2040 40 2970.690
1960 40 3136.566
1980 40 3762.371
2030 20 4863.185
1990 20 6358.584
2050 20 4825.486
2010 20 4863.185
2070 20 4995.132
1980 120 1282.524
2000 120 783.765
2020 120 980.177
1970 100 1231.504
1990 100 955.044
2010 100 1539.380
2030 100 1384.395
2050 100 1137.257
2000 80 1839.717
2020 80 2749.522
2040 80 1241.557
2060 80 1327.009
2080 80 1344.602
2070 60 2480.602
2090 60 2220.478
2110 60 2484.371
2030 60 1720.964
2050 60 2011.248
2100 40 3911.911
2120 40 3080.017
2140 40 3636.708
2060 40 3630.424
2080 40 3690.743
2130 20 5202.477
2090 20 5051.681
2150 20 4825.486
2110 20 4825.486
2170 20 5365.840
1945 30 4712.389
2035 30 4071.504
1955 30 4071.504
2045 30 3958.407
1965 30 3739.752
2055 30 3345.796
1975 30 4636.991
1985 30 4825.486
1995 30 4373.097
2005 30 4806.637
2015 30 3939.557
2025 30 3958.407
1940 20 5705.132
2000 20 5390.973
2060 20 4712.389
1960 20 6044.424
2020 20 5039.115
1980 20 5862.212
2040 20 4071.504
1922.5 15 3930.132
1967.5 15 7341.902
2012.5 15 5353.274
2057.5 15 5178.915
1927.5 15 4406.084
1972.5 15 6606.769
2017.5 15 5701.991
2062.5 15 5230.752
1932.5 15 4877.323
1977.5 15 5692.566
2022.5 15 4891.460
2067.5 15 5447.522
1937.5 15 5805.663
1982.5 15 6276.902
2027.5 15 4297.699
2072.5 15 5230.752
1942.5 15 6234.491
1987.5 15 7473.849
2032.5 15 4128.053
2077.5 15 5409.823
1947.5 15 6050.707
1992.5 15 7803.716
2037.5 15 5249.601
1952.5 15 5862.212
1997.5 15 5843.362
2042.5 15 5221.327
1957.5 15 6644.468
2002.5 15 4467.345
2047.5 15 5183.628
1962.5 15 7445.575
2007.5 15 4542.743
2052.5 15 4976.283
1915 10 3631.681
1945 10 6968.053
1975 10 7508.406
2005 10 3273.540
2035 10 5416.106
2065 10 6440.265
1920 10 3996.106
1950 10 6477.964
1980 10 8227.831
2010 10 5171.062
2040 10 5566.902
2070 10 5560.619
1925 10 4677.831
1955 10 6214.070
1985 10 8073.893
2015 10 5887.345
2045 10 6324.026
2075 10 6396.283
1930 10 4781.504
1960 10 7489.557
1990 10 7872.831
2020 10 4373.097
2050 10 5309.292
2080 10 6295.752
1935 10 4913.451
1965 10 9393.362
1995 10 7382.743
2025 10 3945.840
2055 10 5604.601
2085 10 5642.300
1940 10 6013.008
1970 10 8180.707
2000 10 5629.734
2030 10 5098.805
2060 10 6452.831
1907.5 5 4916.593
1922.5 5 6283.185
1937.5 5 8827.875
1952.5 5 10021.681
1967.5 5 12943.362
1982.5 5 13728.760
1997.5 5 11215.486
2012.5 5 8325.221
2027.5 5 9958.849
2042.5 5 10210.176
2057.5 5 11089.822
2072.5 5 10964.158
2087.5 5 9676.105
1912.5 5 5178.915
1927.5 5 6942.920
1942.5 5 10398.672
1957.5 5 9833.185
1972.5 5 11686.725
1987.5 5 15330.972
2002.5 5 5700.420
2017.5 5 7367.035
2032.5 5 11215.486
2047.5 5 11466.813
2062.5 5 11938.052
2077.5 5 11184.070
2092.5 5 12189.379
1917.5 5 5265.309
1932.5 5 8984.955
1947.5 5 8765.044
1962.5 5 12707.742
1977.5 5 13760.176
1992.5 5 11906.636
2007.5 5 4413.938
2022.5 5 10021.681
2037.5 5 9833.185
2052.5 5 9927.433
2067.5 5 10995.574
2082.5 5 11623.893
2080 120 437.310
2100 120 789.419
2120 120 452.389
2070 100 829.380
2090 100 718.796
2110 100 829.380
2130 100 813.672
2150 100 676.699
2100 80 1417.487
2120 80 1168.672
2140 80 1025.416
2160 80 1414.973
2180 80 1244.071
2170 60 2286.451
2190 60 2672.867
2210 60 2469.292
2130 60 2273.256
2150 60 2015.018
2200 40 3503.504
2220 40 4210.991
2240 40 3818.920
2160 40 3883.009
2180 40 3739.752
2230 20 6402.566
2190 20 5736.548
2250 20 4988.849
2210 20 5466.371
2270 20 5328.141
2180 120 610.726
2200 120 372.090
2220 120 448.996
2170 100 810.531
2190 100 1053.690
2210 100 803.619
2230 100 630.203
2250 100 739.531
2200 80 1646.195
2220 80 1568.283
2240 80 1379.787
2260 80 1186.265
2280 80 1060.602
2270 60 2056.487
2290 60 1696.460
2310 60 2047.062
2230 60 2305.301
2250 60 2299.646
2300 40 3684.460
2320 40 3013.416
2340 40 3429.363
2260 40 3401.717
2280 40 3749.805
2330 20 6597.345
2290 20 5610.884
2350 20 5064.247
2310 20 4825.486
2370 20 6320.884
2280 120 614.119
2300 120 1123.057
2320 120 444.473
2270 100 705.602
2290 100 920.487
2310 100 816.814
2330 100 838.805
2350 100 596.903
2300 80 1110.867
2320 80 1397.380
2340 80 1206.372
2360 80 1251.611
2380 80 1080.708
2370 60 2082.876
2390 60 2150.734
2410 60 1445.761
2330 60 1996.168
2350 60 1901.920
2400 40 2885.239
2420 40 3005.876
2440 40 2883.982
2360 40 3630.424
2380 40 2954.354
2430 20 4165.752
2390 20 4517.610
2450 20 4021.239
2410 20 4461.062
2470 20 4699.823
2380 120 520.248
2400 120 655.965
2420 120 569.257
2370 100 811.473
2390 100 1206.372
2410 100 691.150
2430 100 578.053
2450 100 567.057
2400 80 1123.434
2420 80 868.839
2440 80 927.901
2460 80 1083.221
2480 80 1259.150
2470 60 1960.354
2490 60 1982.973
2510 60 2116.805
2430 60 1477.805
2450 60 1705.885
2500 40 3118.973
2520 40 2895.292
2540 40 2866.389
2460 40 2514.531
2480 40 3214.478
2530 20 3832.743
2490 20 4322.831
2550 20 3631.681
2510 20 4329.115
2570 20 3581.416
2480 120 326.851
2500 120 517.986
2520 120 437.310
2470 100 497.628
2490 100 659.734
2510 100 686.752
2530 100 731.363
2550 100 698.690
2500 80 1148.566
2520 80 1208.885
2540 80 1058.088
2560 80 953.536
2580 80 1103.327
2570 60 1720.964
2590 60 2030.097
2610 60 1926.425
2530 60 1741.699
2550 60 1494.770
2600 40 2895.292
2620 40 2752.035
2640 40 2354.938
2560 40 2643.964
2580 40 2606.265
2630 20 2764.602
2590 20 3430.619
2650 20 2946.814
2610 20 3480.885
2670 20 2607.522
2580 120 766.423
2600 120 384.908
2620 120 350.225
2570 100 641.513
2590 100 659.420
2610 100 660.991
2630 100 690.836
2650 100 715.026
2600 80 1153.593
2620 80 1311.929
2640 80 1080.708
2660 80 1045.522
2680 80 946.750
2670 60 1581.478
2690 60 1598.442
2710 60 1704.000
2630 60 1937.734
2650 60 1741.699
2700 40 2388.867
2720 40 2642.708
2740 40 3047.345
2660 40 2457.982
2680 40 2611.292
2730 20 3506.017
2690 20 2764.602
2750 20 5240.177
2710 20 3041.062
2770 20 4875.752
2680 120 389.055
2700 120 609.218
2720 120 606.956
2670 100 568.628
2690 100 578.053
2710 100 705.916
2730 100 824.354
2750 100 706.858
2700 80 980.680
2720 80 1161.133
2740 80 1234.018
2760 80 1208.885
2780 80 1588.389
2770 60 2171.469
2790 60 2431.593
2810 60 1892.495
2730 60 1928.310
2750 60 1869.876
2800 40 3606.548
2820 40 3715.876
2840 40 3328.832
2760 40 3358.991
2780 40 3210.708
2830 20 6446.548
2790 20 7301.061
2850 20 5139.646
2810 20 5573.185
2870 20 5441.238
2780 120 369.451
2800 120 437.310
2820 120 792.435
2770 100 1060.916
2790 100 739.845
2810 100 609.469
2830 100 722.566
2850 100 849.487
2800 80 1234.018
2820 80 1035.469
2840 80 919.858
2860 80 1048.035
2880 80 1869.876
2870 60 1683.265
2890 60 2369.389
2910 60 2350.540
2830 60 1698.345
2850 60 1830.292
2900 40 3244.637
2920 40 2855.079
2940 40 2412.743
2860 40 3435.646
2880 40 3761.115
2930 20 4461.062
2890 20 5114.513
2950 20 4260.000
2910 20 5504.070
2970 20 3242.124
2880 120 314.034
2900 120 321.196
2920 120 370.582
2870 100 606.642
2890 100 597.531
2910 100 555.434
2930 100 659.420
2950 100 405.894
2900 80 1153.593
2920 80 1186.265
2940 80 847.727
2960 80 600.673
2980 80 606.202
2970 60 1257.265
2990 60 1178.097
3010 60 1475.920
2930 60 1875.531
2950 60 1421.257
3000 40 2037.009
3020 40 2542.177
3040 40 2767.115
2960 40 2444.159
2980 40 2047.062
3030 20 4285.132
2990 20 3072.478
3050 20 4850.619
3010 20 3059.911
3070 20 5529.203
2980 120 302.347
3000 120 255.977
3020 120 301.593
2970 100 497.628
2990 100 351.544
3010 100 302.221
3030 100 402.124
3050 100 439.823
3000 80 618.265
3020 80 598.159
3040 80 735.384
3060 80 1181.239
3080 80 1216.425
3070 60 1389.212
3090 60 2239.327
3110 60 1347.743
3030 60 1357.168
3050 60 1327.009
3100 40 3010.902
3120 40 3448.212
3140 40 2694.230
3060 40 2622.602
3080 40 2289.593
3130 20 6283.185
3090 20 6270.619
3150 20 4593.008
3110 20 5529.203
3170 20 5680.000
2945 30 3374.071
3035 30 3807.610
2955 30 3307.155
3045 30 3826.460
2965 30 2659.672
3055 30 3498.478
2975 30 2846.283
2985 30 2516.416
2995 30 2743.553
3005 30 2619.146
3015 30 3015.929
3025 30 3310.924
2940 20 4234.867
3000 20 3518.584
3060 20 5139.646
2960 20 3920.708
3020 20 3895.575
2980 20 2827.433
3040 20 5397.256
2922.5 15 5310.862
2967.5 15 4137.478
3012.5 15 3298.672
3057.5 15 5428.672
2927.5 15 5145.929
2972.5 15 3656.814
3017.5 15 3576.703
3062.5 15 5013.982
2932.5 15 4891.460
2977.5 15 3011.217
3022.5 15 4938.584
3067.5 15 5857.500
2937.5 15 5155.354
2982.5 15 3072.478
3027.5 15 4966.858
3072.5 15 7464.424
2942.5 15 4985.708
2987.5 15 3166.725
3032.5 15 4966.858
3077.5 15 7549.247
2947.5 15 4844.336
2992.5 15 3534.292
3037.5 15 4853.761
2952.5 15 4203.451
2997.5 15 3590.840
3042.5 15 5871.637
2957.5 15 3892.433
3002.5 15 3609.690
3047.5 15 6710.442
2962.5 15 4014.955
3007.5 15 3015.929
3052.5 15 6719.867
2915 10 5353.274
2945 10 6788.982
2975 10 3480.885
3005 10 3776.194
3035 10 5918.761
3065 10 6223.495
2920 10 6433.982
2950 10 5365.840
2980 10 3430.619
3010 10 3449.469
3040 10 5925.044
3070 10 7483.274
2925 10 7018.318
2955 10 3996.106
2985 10 3468.318
3015 10 3707.079
3045 10 7533.539
3075 10 7715.752
2930 10 6072.699
2960 10 4297.699
2990 10 3562.566
3020 10 4951.150
3050 10 8507.433
3080 10 6999.468
2935 10 5101.946
2965 10 5139.646
2995 10 3719.646
3025 10 6163.805
3055 10 7194.247
3085 10 6044.424
2940 10 6069.557
2970 10 4134.336
3000 10 4165.752
3030 10 5830.796
3060 10 5497.787
2907.5 5 9676.105
2922.5 5 12252.211
2937.5 5 9016.371
2952.5 5 8356.636
2967.5 5 7225.663
2982.5 5 6503.097
2997.5 5 6628.760
3012.5 5 4459.491
3027.5 5 11655.309
3042.5 5 13069.025
3057.5 5 8922.123
3072.5 5 7634.070
3087.5 5 8450.884
2912.5 5 9801.769
2927.5 5 9110.619
2942.5 5 10964.158
2957.5 5 9079.203
2972.5 5 4511.327
2987.5 5 5378.407
3002.5 5 5136.504
3017.5 5 9644.689
3032.5 5 11089.822
3047.5 5 11152.654
3062.5 5 7068.583
3077.5 5 11309.734
3092.5 5 10304.424
2917.5 5 9393.362
2932.5 5 11152.654
2947.5 5 10053.096
2962.5 5 6408.849
2977.5 5 5419.247
2992.5 5 6565.929
3007.5 5 7979.645
3022.5 5 7791.150
3037.5 5 11969.468
3052.5 5 12660.618
3067.5 5 10869.911
3082.5 5 9299.114
3080 120 689.894
3100 120 437.310
3120 120 814.301
3070 100 647.796
3090 100 641.513
3110 100 404.323
3130 100 659.734
3100 80 668.531
3120 80 889.699
3140 80 864.315
3180 80 660.991
3170 60 1319.469
3190 60 1436.336
3210 60 2096.071
3130 60 1409.947
3150 60 1406.177
3200 40 2851.309
3220 40 2713.079
3240 40 3273.540
3160 40 2548.460
3180 40 3193.115
3230 20 4869.469
3190 20 4762.654
3250 20 6421.415
3210 20 5472.654
3270 20 5227.610
3180 120 444.850
3200 120 657.096
3220 120 237.504
3170 100 759.009
3190 100 577.739
3210 100 395.212
3230 100 720.053
3250 100 426.314
3200 80 693.161
3220 80 1482.832
3240 80 790.676
3260 80 968.867
3280 80 670.290
3270 60 1617.292
3290 60 1351.513
3310 60 1587.133
3230 60 1732.274
3250 60 1394.867
3300 40 2777.168
3320 40 3296.159
3340 40 3353.964
3260 40 3073.734
3280 40 2843.770
3330 20 6056.991
3290 20 6063.274
3350 20 5516.637
3310 20 5390.973
3370 20 6019.292
3280 120 269.549
3300 120 534.950
3320 120 380.007
3270 100 470.296
3290 100 497.314
3310 100 475.009
3330 100 691.779
3350 100 462.757
3300 80 1020.389
3320 80 1005.310
3340 80 772.580
3360 80 686.375
3380 80 756.998
3370 60 1398.637
3390 60 1489.115
3410 60 1257.265
3330 60 1662.531
3350 60 1587.133
3400 40 2694.230
3420 40 3113.947
3440 40 2659.044
3360 40 3130.283
3380 40 2249.380
3430 20 4222.301
3390 20 4486.194
3450 20 3857.876
3410 20 4888.318
3470 20 4234.867
3380 120 211.115
3400 120 222.425
3420 120 187.365
3370 100 338.978
3390 100 336.465
3410 100 439.823
3430 100 378.562
3450 100 327.668
3400 80 715.529
3420 80 929.911
3440 80 573.780
3460 80 626.811
3480 80 643.650
3470 60 1140.398
3490 60 1215.796
3510 60 1259.150
3430 60 1479.690
3450 60 1443.876
3500 40 2474.318
3520 40 2259.433
3540 40 2505.734
3460 40 2307.186
3480 40 2364.991
3530 20 4002.389
3490 20 4184.601
3550 20 4599.292
3510 20 4693.539
3570 20 3556.283
3480 120 168.138
3500 120 209.607
3520 120 230.719
3470 100 361.597
3490 100 321.385
3510 100 383.903
3530 100 355.314
3550 100 282.429
3500 80 741.667
3520 80 630.580
3540 80 575.540
3560 80 566.492
3580 80 587.352
3570 60 1065.000
3590 60 1130.973
3610 60 1289.310
3530 60 1236.531
3550 60 1068.770
3600 40 2294.619
3620 40 2872.672
3640 40 2574.849
3560 40 2180.265
3580 40 1995.540
3630 20 4373.097
3590 20 3732.212
3650 20 4913.451
3610 20 4033.805
3670 20 5001.416
3580 120 209.230
3600 120 161.729
3620 120 181.333
3570 100 357.199
3590 100 295.310
3610 100 385.473
3630 100 288.712
3650 100 260.438
3600 80 621.784
3620 80 534.322
3640 80 551.915
3660 80 528.542
3680 80 579.310
3670 60 1149.823
3690 60 1168.672
3710 60 1426.911
3630 60 1296.849
3650 60 1187.522
3700 40 3151.646
3720 40 3186.832
3740 40 3149.132
3660 40 2436.619
3680 40 2635.168
3730 20 7194.247
3690 20 5918.761
3750 20 5516.637
3710 20 5208.761
3770 20 6949.203
3680 120 159.467
3700 120 248.814
3720 120 168.892
3670 100 318.243
3690 100 290.283
3710 100 288.084
3730 100 331.752
3750 100 254.469
3700 80 545.883
3720 80 554.680
3740 80 523.012
3760 80 730.357
3780 80 562.471
3770 60 1398.637
3790 60 1272.345
3810 60 1123.434
3730 60 1357.168
3750 60 1304.389
3800 40 3249.663
3820 40 2706.796
3840 40 2513.274
3760 40 2793.504
3780 40 3188.088
3830 20 6446.548
3790 20 6710.442
3850 20 5994.159
3810 20 6157.522
3870 20 5881.061
3780 120 168.892
3800 120 131.758
3820 120 231.096
3770 100 251.327
3790 100 220.540
3810 100 257.611
3830 100 256.668
3850 100 268.606
3800 80 492.602
3820 80 572.524
3840 80 496.120
3860 80 498.382
3880 80 492.602
3870 60 1114.009
3890 60 1193.177
3910 60 1040.495
3830 60 1255.380
3850 60 1168.672
3900 40 2229.274
3920 40 2254.407
3940 40 2303.416
3860 40 2989.540
3880 40 2729.416
3930 20 4687.256
3890 20 5145.929
3950 20 3795.044
3910 20 4549.026
3970 20 4863.185
3880 120 153.812
3900 120 110.609
3920 120 123.992
3870 100 184.097
3890 100 219.283
3910 100 210.801
3930 100 158.022
3950 100 165.562
3900 80 449.876
3920 80 495.869
3940 80 391.317
3960 80 390.814
3980 80 395.087
3970 60 904.779
3990 60 983.947
4010 60 852.000
3930 60 893.469
3950 60 897.239
4000 40 2123.717
4020 40 2161.416
4040 40 1965.380
3960 40 2194.088
3980 40 1982.973
4030 20 4096.637
3990 20 3970.973
4050 20 4184.601
4010 20 4963.716
4070 20 3556.283
3980 120 118.413
4000 120 110.948
4020 120 134.510
3970 100 180.956
3990 100 176.872
4010 100 202.004
4030 100 160.535
4050 100 137.916
4000 80 411.674
4020 80 385.034
4040 80 343.816
4060 80 360.906
4080 80 389.055
4070 60 784.142
4090 60 765.292
4110 60 842.575
4030 60 859.540
4050 60 731.740
4100 40 1975.433
4120 40 1755.522
4140 40 1580.849
4060 40 1697.717
4080 40 1849.770
4130 20 3380.354
4090 20 3550.000
4150 20 3983.539
4110 20 3964.690
4170 20 3380.354
3945 30 3412.712
4035 30 2879.270
3955 30 2724.703
4045 30 2721.876
3965 30 3244.009
4055 30 2490.026
3975 30 3028.181
3985 30 3238.354
3995 30 2963.150
4005 30 3322.234
4015 30 2966.920
4025 30 3520.155
3940 20 4429.646
4000 20 4146.902
4060 20 3681.947
3960 20 4071.504
4020 20 4448.495
3980 20 4379.380
4040 20 4058.938
3922.5 15 4990.420
3967.5 15 4721.814
4012.5 15 5079.955
4057.5 15 3911.283
3927.5 15 5230.752
3972.5 15 5739.690
4017.5 15 5230.752
4062.5 15 3515.442
3932.5 15 5353.274
3977.5 15 4693.539
4022.5 15 5136.504
4067.5 15 3675.663
3937.5 15 5004.557
3982.5 15 5197.765
4027.5 15 4910.309
4072.5 15 4401.371
3942.5 15 4575.730
3987.5 15 4212.876
4032.5 15 4655.840
4077.5 15 4561.593
3947.5 15 4382.522
3992.5 15 4957.433
4037.5 15 4128.053
3952.5 15 4938.584
3997.5 15 5042.256
4042.5 15 4486.194
3957.5 15 4354.247
4002.5 15 5701.991
4047.5 15 4816.062
3962.5 15 4882.035
4007.5 15 4731.239
4052.5 15 4665.265
3915 10 5755.398
3945 10 5309.292
3975 10 7740.884
4005 10 5654.867
4035 10 4932.300
4065 10 3129.026
3920 10 5265.309
3950 10 4768.938
3980 10 5566.902
4010 10 5893.628
4040 10 4926.017
4070 10 4216.017
3925 10 5761.681
3955 10 6151.238
3985 10 3952.124
4015 10 5397.256
4045 10 4247.433
4075 10 5057.964
3930 10 5868.495
3960 10 6547.079
3990 10 6107.256
4020 10 5692.566
4050 10 4310.265
4080 10 4523.893
3935 10 6352.300
3965 10 4027.522
3995 10 6854.955
4025 10 5887.345
4055 10 4844.336
4085 10 3889.292
3940 10 6289.468
3970 10 5390.973
4000 10 5290.442
4030 10 5114.513
4060 10 3713.363
3907.5 5 7571.238
3922.5 5 9361.946
3937.5 5 9110.619
3952.5 5 7539.822
3967.5 5 10398.672
3982.5 5 4498.761
3997.5 5 6942.920
4012.5 5 7099.999
4027.5 5 7194.247
4042.5 5 6628.760
4057.5 5 4706.106
4072.5 5 5456.946
4087.5 5 6044.424
3912.5 5 7288.495
3927.5 5 9990.265
3942.5 5 10084.512
3957.5 5 11152.654
3972.5 5 6723.008
3987.5 5 9676.105
4002.5 5 7131.415
4017.5 5 7948.229
4032.5 5 5546.482
4047.5 5 4954.292
4062.5 5 2893.407
4077.5 5 6471.681
4092.5 5 6148.097
3917.5 5 9079.203
3932.5 5 10178.760
3947.5 5 8670.796
3962.5 5 6283.185
3977.5 5 13100.441
3992.5 5 7005.752
4007.5 5 8388.052
4022.5 5 6267.477
4037.5 5 5865.353
4052.5 5 5461.659
4067.5 5 4787.787
4082.5 5 6817.256
4080 120 99.903
4100 120 117.395
4120 120 114.605
4070 100 289.027
4090 100 170.903
4110 100 188.181
4130 100 156.765
4150 100 168.704
4100 80 376.488
4120 80 482.549
4140 80 262.637
4160 80 251.327
4180 80 326.977
4170 60 641.073
4190 60 541.359
4210 60 563.790
4130 60 726.650
4150 60 605.071
4200 40 1688.920
4220 40 1216.425
4240 40 1151.080
4160 40 1379.787
4180 40 1648.708
4230 20 3091.327
4190 20 3983.539
4250 20 2877.699
4210 20 3543.717
4270 20 2185.292
4180 120 142.880
4200 120 95.793
4220 120 91.571
4170 100 166.190
4190 100 135.717
4210 100 199.491
4230 100 94.342
4250 100 124.093
4200 80 280.733
4220 80 249.065
4240 80 190.506
4260 80 138.733
4280 80 138.984
4270 60 366.435
4290 60 392.636
4310 60 300.273
4230 60 528.353
4250 60 410.543
4300 40 781.628
4320 40 880.903
4340 40 650.938
4260 40 1250.354
4280 40 1183.752
4330 20 2188.433
4290 20 1982.973
4350 20 2095.442
4310 20 2224.248
4370 20 1885.584
4280 120 263.140
4300 120 37.134
4320 120 51.308
4270 100 150.168
4290 100 80.990
4310 100 74.833
4330 100 51.239
4350 100 70.058
4300 80 147.529
4320 80 125.412
4340 80 145.770
4360 80 100.531
4380 80 123.653
4370 60 200.748
4390 60 198.674
4410 60 181.333
4330 60 286.702
4350 60 267.287
4400 40 632.088
4420 40 530.301
4440 40 527.788
4360 40 658.478
4380 40 625.805
4430 20 1874.274
4390 20 1656.248
4450 20 1996.168
4410 20 1827.779
4470 20 1889.982
4380 120 67.519
4400 120 154.189
4420 120 48.255
4370 100 149.854
4390 100 71.754
4410 100 68.958
4430 100 50.485
4450 100 39.615
4400 80 92.036
4420 80 79.218
4440 80 61.073
4460 80 51.975
4480 80 70.070
4470 60 135.717
4490 60 138.921
4510 60 126.104
4430 60 187.930
4450 60 136.471
4500 40 545.380
4520 40 476.894
4540 40 650.938
4460 40 552.920
4480 40 571.770
4530 20 2739.469
4490 20 2601.239
4550 20 2651.504
4510 20 1849.770
4570 20 2638.938
4480 120 47.501
4500 120 50.441
4520 120 51.271
4470 100 63.649
4490 100 46.810
4510 100 54.412
4530 100 43.354
4550 100 45.050
4500 80 55.820
4520 80 60.369
4540 80 57.403
4560 80 54.965
4580 80 71.126
4570 60 114.417
4590 60 130.816
4610 60 170.400
4530 60 168.704
4550 60 171.342
4600 40 443.593
4640 40 732.619
4560 40 642.142
4630 20 2978.230
4590 20 3267.256
4650 20 3242.124
4610 20 3204.425
4670 20 2613.805
4580 120 48.481
4600 120 44.862
4620 120 49.574
4570 100 48.663
4590 100 38.956
4610 100 50.485
4630 100 44.611
4650 100 66.288
4600 80 55.895
4620 80 52.276
4640 80 46.320
4660 80 98.269
4680 80 42.499
4670 60 139.675
4690 60 107.631
4710 60 98.395
4630 60 121.768
4650 60 145.142
4700 40 441.959
4720 40 483.303
4740 40 406.522
4660 40 664.761
4680 40 522.761
4730 20 2169.584
4690 20 2802.301
4750 20 1693.947
4710 20 2414.000
4770 20 1856.053
4680 120 41.884
4700 120 43.995
4720 120 58.207
4670 100 61.858
4690 100 42.129
4710 100 40.307
4730 100 45.113
4750 100 17.593
4700 80 52.578
4720 80 49.411
4740 80 52.452
4760 80 43.731
4780 80 74.870
4770 60 112.343
4790 60 98.583
4810 60 80.488
4730 60 102.353
4750 60 111.401
4800 40 346.204
4820 40 298.326
4840 40 351.858
4760 40 457.793
4780 40 362.665
4830 20 1944.018
4790 20 1491.628
4850 20 1852.283
4810 20 1946.531
4870 20 2069.053
4780 120 52.364
4800 120 40.828
4820 120 39.886
4770 100 64.120
4790 100 39.270
4810 100 37.228
4830 100 43.919
4850 100 27.552
4800 80 47.752
4820 80 64.591
4840 80 45.113
4860 80 46.697
4880 80 52.754
4870 60 83.881
4890 60 73.136
4910 60 67.915
4830 60 72.891
4850 60 66.011
4900 40 268.920
4920 40 244.416
4940 40 316.296
4860 40 339.795
4880 40 321.322
4930 20 1141.655
4890 20 1562.628
4950 20 1195.062
4910 20 1425.026
4970 20 1294.336
4880 120 41.054
4900 120 41.318
4920 120 39.735
4870 100 43.165
4890 100 37.291
4910 100 39.165
4930 100 39.301
4950 100 31.919
4900 80 40.740
4920 80 42.399
4940 80 27.194
4960 80 30.662
4980 80 33.024
4970 60 53.552
4990 60 51.836
5010 60 43.241
4930 60 73.268
4950 60 56.756
5000 40 149.791
5020 40 238.761
5040 40 187.742
4960 40 256.605
4980 40 142.628
5030 20 984.575
4990 20 1196.318
5050 20 801.106
5010 20 1208.257
5070 20 678.584
4980 120 40.677
5000 120 24.655
5020 120 33.477
4970 100 30.473
4990 100 29.719
5010 100 33.112
5030 100 30.662
5050 100 34.526
5000 80 33.954
5020 80 31.114
5040 80 30.285
5060 80 32.371
5080 80 36.895
5070 60 43.392
5090 60 40.357
5110 60 38.981
5030 60 44.617
5050 60 47.256
5100 40 109.076
5120 40 72.382
5140 40 53.407
5060 40 79.545
5080 40 100.028
5130 20 597.531
5090 20 736.389
5150 20 536.584
5110 20 588.734
5170 20 504.540
4945 30 382.646
5035 30 18.001
4955 30 588.106
5045 30 264.931
4965 30 697.434
5055 30 227.231
4975 30 501.398
4985 30 336.182
4995 30 357.765
5005 30 361.157
5015 30 552.292
5025 30 599.416
4940 20 982.690
5000 20 838.177
5060 20 801.734
4960 20 1041.124
5020 20 1289.310
4980 20 1368.478
5040 20 720.053
4922.5 15 1621.062
4967.5 15 1296.849
5012.5 15 1733.217
5057.5 15 1535.296
4927.5 15 1764.318
4972.5 15 1675.726
5017.5 15 1438.692
5062.5 15 1393.925
4932.5 15 1232.761
4977.5 15 2092.301
5022.5 15 1573.938
5067.5 15 1070.655
4937.5 15 1177.155
4982.5 15 2016.902
5027.5 15 1703.057
5072.5 15 935.880
4942.5 15 1329.836
4987.5 15 1716.252
5032.5 15 1517.389
5077.5 15 1006.566
4947.5 15 1722.378
4992.5 15 1462.254
5037.5 15 1316.170
4952.5 15 1793.535
4997.5 15 1337.376
5042.5 15 1187.993
4957.5 15 1862.807
5002.5 15 1654.991
5047.5 15 1053.690
4962.5 15 1440.577
5007.5 15 1860.451
5052.5 15 1327.480
4915 10 1627.345
4945 10 1935.221
4975 10 2010.619
5005 10 2362.478
5035 10 2167.699
5065 10 1840.973
4920 10 1960.354
4950 10 2199.115
4980 10 2381.327
5010 10 2224.248
5040 10 1828.407
5070 10 1727.876
4925 10 2086.018
4955 10 2368.761
4985 10 2280.796
5015 10 2450.442
5045 10 1614.779
5075 10 1451.416
4930 10 1526.814
4960 10 2236.814
4990 10 1507.964
5020 10 2343.628
5050 10 1878.672
5080 10 1884.956
4935 10 1545.664
4965 10 2337.345
4995 10 1564.513
5025 10 2475.575
5055 10 1702.743
5085 10 1985.487
4940 10 1614.779
4970 10 2130.000
5000 10 5171.062
5030 10 2582.389
5060 10 1809.557
4907.5 5 2824.292
4922.5 5 2513.274
4937.5 5 1749.867
4952.5 5 2949.956
4967.5 5 2463.009
4982.5 5 1853.540
4997.5 5 7806.858
5012.5 5 3342.655
5027.5 5 3502.876
5042.5 5 2032.610
5057.5 5 1998.053
5072.5 5 1957.212
5087.5 5 2475.575
4912.5 5 2441.017
4927.5 5 1955.641
4942.5 5 2249.380
4957.5 5 2613.805
4972.5 5 2506.991
4987.5 5 1680.752
5002.5 5 1932.079
5017.5 5 3333.230
5032.5 5 2861.991
5047.5 5 1705.885
5062.5 5 1910.088
5077.5 5 2287.079
5092.5 5 2664.071
4917.5 5 2287.079
4932.5 5 1881.814
4947.5 5 2211.681
4962.5 5 2905.973
4977.5 5 2123.717
4992.5 5 772.832
5007.5 5 2390.752
5022.5 5 3524.867
5037.5 5 2437.876
5052.5 5 1869.248
5067.5 5 2324.779
5082.5 5 2708.053
5080 120 44.636
5100 120 30.876
5120 120 32.044
5070 100 37.888
5090 100 34.149
5110 100 34.086
5130 100 33.238
5150 100 28.180
5100 80 36.141
5120 80 32.396
5140 80 25.133
5160 80 26.113
5180 80 25.560
5170 60 26.295
5190 60 27.916
5210 60 27.388
5130 60 32.120
5150 60 26.088
5200 40 42.713
5220 40 37.938
5240 40 39.157
5160 40 51.773
5180 40 47.212
5230 20 247.683
5190 20 344.319
5250 20 174.484
5210 20 280.858
5270 20 207.094
5180 120 32.233
5200 120 39.188
5220 120 34.985
5170 100 30.316
5190 100 30.882
5210 100 31.196
5230 100 34.683
5250 100 32.673
5200 80 27.420
5220 80 32.220
5240 80 28.375
5260 80 26.792
5280 80 27.948
5270 60 25.258
5290 60 24.881
5310 60 22.978
5230 60 31.121
5250 60 27.426
5300 40 27.294
5320 40 30.285
5340 40 27.621
5260 40 35.236
5280 40 30.913
5330 20 166.819
5290 20 181.019
5350 20 211.492
5310 20 215.827
5370 20 103.484
5280 120 34.532
5300 120 30.725
5320 120 31.667
5270 100 29.342
5290 100 27.740
5310 100 27.206
5330 100 28.494
5350 100 24.913
5300 80 25.309
5320 80 24.831
5340 80 52.527
5360 80 20.684
5380 80 21.891
5370 60 22.676
5390 60 18.963
5410 60 22.393
5330 60 22.563
5350 60 23.204
5400 40 26.176
5420 40 25.648
5440 40 29.694
5360 40 24.140
5380 40 31.981
5430 20 92.174
5390 20 138.670
5450 20 91.672
5410 20 87.650
5470 20 131.381
5245 30 59.376
5335 30 55.700
5255 30 70.120
5345 30 40.809
5265 30 67.104
5355 30 39.678
5275 30 70.874
5285 30 52.119
5295 30 53.344
5305 30 47.784
5315 30 52.496
5325 30 52.025
5240 20 226.572
5300 20 144.576
5360 20 163.677
5260 20 183.218
5320 20 245.044
5280 20 260.752
5340 20 137.790
5222.5 15 527.788
5267.5 15 413.748
5312.5 15 485.376
5357.5 15 372.279
5227.5 15 505.168
5272.5 15 492.916
5317.5 15 515.535
5362.5 15 336.936
5232.5 15 450.504
5277.5 15 377.462
5322.5 15 494.801
5367.5 15 310.075
5237.5 15 475.951
5282.5 15 388.301
5327.5 15 434.482
5372.5 15 372.279
5242.5 15 545.695
5287.5 15 366.624
5332.5 15 344.004
5377.5 15 278.031
5247.5 15 432.597
5292.5 15 393.956
5337.5 15 328.925
5252.5 15 382.646
5297.5 15 371.336
5342.5 15 468.411
5257.5 15 355.314
5302.5 15 311.018
5347.5 15 452.389
5262.5 15 379.819
5307.5 15 365.681
5352.5 15 448.619
5215 10 946.248
5245 10 1019.133
5275 10 605.699
5305 10 876.819
5335 10 961.956
5365 10 1007.823
5220 10 1029.186
5250 10 1059.345
5280 10 513.336
5310 10 848.858
5340 10 1002.482
5370 10 1034.841
5225 10 1188.150
5255 10 687.380
5285 10 857.655
5315 10 1024.788
5345 10 1099.557
5375 10 760.265
5230 10 953.159
5260 10 769.690
5290 10 632.717
5320 10 1063.743
5350 10 1048.035
5380 10 738.903
5235 10 806.133
5265 10 906.664
5295 10 779.743
5325 10 1109.611
5355 10 933.681
5385 10 936.195
5240 10 980.177
5270 10 904.779
5300 10 668.531
5330 10 1010.336
5360 10 738.903
5207.5 5 2038.894
5222.5 5 1976.062
5237.5 5 1504.823
5252.5 5 1366.593
5267.5 5 1548.805
5282.5 5 892.212
5297.5 5 945.619
5312.5 5 1884.956
5327.5 5 2208.540
5342.5 5 2086.018
5357.5 5 2312.212
5372.5 5 1979.203
5387.5 5 1954.071
5212.5 5 1687.035
5227.5 5 1762.433
5242.5 5 1712.168
5257.5 5 1394.867
5272.5 5 1014.734
5287.5 5 983.319
5302.5 5 1275.487
5317.5 5 1800.133
5332.5 5 1718.451
5347.5 5 2293.363
5362.5 5 1354.026
5377.5 5 1577.080
5392.5 5 1174.956
5217.5 5 1847.256
5232.5 5 1796.991
5247.5 5 1407.434
5262.5 5 1080.708
5277.5 5 1162.389
5292.5 5 813.672
5307.5 5 1146.681
5322.5 5 1917.942
5337.5 5 2104.867
5352.5 5 2032.610
5367.5 5 2101.725
5382.5 5 2095.442
5380 120 27.784
5400 120 32.421
5420 120 29.858
5370 100 23.373
5390 100 24.253
5410 100 27.897
5430 100 29.405
5450 100 26.484
5400 80 22.946
5420 80 26.490
5440 80 25.183
5460 80 26.440
5480 80 25.133
5470 60 22.733
5490 60 23.373
5510 60 19.227
5430 60 22.871
5450 60 23.355
5500 40 24.190
5520 40 24.253
5540 40 18.724
5460 40 32.459
5480 40 20.571
5530 20 72.194
5490 20 83.692
5550 20 38.642
5510 20 106.123
5570 20 61.198
5365 30 38.830
5455 30 20.122
5405 30 40.715
5415 30 33.788
5425 30 34.994
5400 20 109.202
5460 20 100.908
5420 20 83.755
5380 20 106.940
5440 20 87.336
5412.5 15 163.096
5457.5 15 195.093
5417.5 15 133.266
5462.5 15 248.814
5422.5 15 145.189
5467.5 15 215.827
5382.5 15 282.272
5427.5 15 158.054
5472.5 15 249.757
5387.5 15 251.642
5432.5 15 158.006
5477.5 15 250.699
5392.5 15 253.527
5437.5 15 148.110
5397.5 15 232.321
5442.5 15 151.975
5402.5 15 215.827
5447.5 15 171.154
5407.5 15 170.636
5452.5 15 186.799
5405 10 420.973
5435 10 331.752
5465 10 474.380
5410 10 260.752
5440 10 374.478
5470 10 591.248
5415 10 212.372
5445 10 368.195
5475 10 473.752
5390 10 684.239
5420 10 242.531
5450 10 431.655
5480 10 498.257
5395 10 488.203
5425 10 272.062
5455 10 425.372
5485 10 590.619
5400 10 516.478
5430 10 287.142
5460 10 441.708
5397.5 5 1482.832
5412.5 5 491.345
5427.5 5 626.748
5442.5 5 961.327
5457.5 5 907.920
5472.5 5 986.460
5487.5 5 1021.018
5402.5 5 870.221
5417.5 5 363.011
5432.5 5 761.836
5447.5 5 948.761
5462.5 5 885.929
5477.5 5 1294.336
5492.5 5 644.026
5407.5 5 548.522
5422.5 5 498.885
5437.5 5 889.071
5452.5 5 973.894
5467.5 5 1137.257
5482.5 5 882.788
5480 120 33.175
5500 120 32.572
5520 120 29.443
5470 100 28.965
5490 100 28.526
5510 100 26.138
5530 100 25.761
5550 100 26.169
5500 80 21.128
5520 80 21.539
5540 80 22.795
5560 80 22.117
5580 80 21.363
5570 60 20.866
5590 60 21.564
5610 60 16.908
5530 60 17.794
5550 60 19.604
5600 40 24.881
5620 40 17.509
5640 40 16.864
5560 40 15.444
5580 40 21.677
5630 20 38.202
5590 20 42.349
5650 20 36.694
5610 20 47.312
5670 20 48.632
5535 30 28.086
5545 30 19.377
5465 30 41.375
5555 30 21.507
5475 30 33.939
5485 30 30.442
5495 30 28.991
5505 30 30.131
5515 30 40.998
5525 30 36.785
5500 20 89.724
5560 20 51.836
5520 20 80.488
5480 20 95.944
5540 20 57.365
5512.5 15 193.208
5557.5 15 109.375
5517.5 15 124.030
5562.5 15 111.165
5522.5 15 117.574
5567.5 15 99.431
5482.5 15 233.734
5527.5 15 147.074
5572.5 15 79.404
5487.5 15 174.877
5532.5 15 164.934
5577.5 15 85.671
5492.5 15 212.058
5537.5 15 114.605
5497.5 15 232.792
5542.5 15 81.619
5502.5 15 280.387
5547.5 15 62.109
5507.5 15 237.504
5552.5 15 81.524
5505 10 573.027
5535 10 226.823
5565 10 227.451
5510 10 461.500
5540 10 182.212
5570 10 204.518
5515 10 333.637
5545 10 130.062
5575 10 230.907
5490 10 566.743
5520 10 343.690
5550 10 101.788
5580 10 298.451
5495 10 440.765
5525 10 345.575
5555 10 162.734
5585 10 302.221
5500 10 510.509
5530 10 311.018
5560 10 255.097
5497.5 5 716.283
5512.5 5 925.199
5527.5 5 873.363
5542.5 5 222.896
5557.5 5 272.690
5572.5 5 747.699
5587.5 5 628.319
5502.5 5 879.646
5517.5 5 948.761
5532.5 5 502.184
5547.5 5 220.383
5562.5 5 574.126
5577.5 5 678.584
5592.5 5 659.734
5507.5 5 819.956
5522.5 5 791.681
5537.5 5 470.296
5552.5 5 196.350
5567.5 5 503.911
5582.5 5 644.026
5580 120 29.066
5600 120 24.052
5620 120 24.580
5570 100 24.504
5590 100 18.912
5610 100 20.986
5630 100 29.437
5650 100 28.777
5600 80 21.790
5620 80 22.092
5640 80 21.941
5660 80 24.328
5680 80 25.133
5670 60 23.166
5690 60 22.657
5710 60 21.583
5630 60 18.058
5650 60 19.962
5700 40 22.871
5720 40 22.871
5740 40 28.425
5660 40 23.298
5680 40 28.274
5730 20 35.437
5690 20 36.945
5750 20 42.537
5710 20 46.558
5770 20 39.898
5635 30 18.228
5645 30 22.242
5565 30 22.667
5655 30 29.518
5575 30 30.536
5585 30 26.993
5595 30 25.164
5605 30 24.787
5615 30 25.626
5625 30 20.772
5600 20 41.092
5660 20 55.355
5620 20 39.458
5580 20 44.925
5640 20 29.908
5612.5 15 68.754
5657.5 15 65.738
5617.5 15 70.921
5662.5 15 79.686
5622.5 15 62.863
5667.5 15 87.273
5582.5 15 90.808
5627.5 15 85.530
5672.5 15 69.461
5587.5 15 121.391
5632.5 15 56.926
5677.5 15 58.339
5592.5 15 105.652
5637.5 15 57.633
5597.5 15 112.956
5642.5 15 51.035
5602.5 15 74.032
5647.5 15 53.957
5607.5 15 84.399
5652.5 15 50.988
5605 10 297.195
5635 10 97.169
5665 10 123.025
5610 10 169.646
5640 10 91.860
5670 10 150.168
5615 10 147.027
5645 10 80.833
5675 10 112.532
5590 10 263.894
5620 10 199.805
5650 10 111.212
5680 10 125.318
5595 10 206.717
5625 10 173.416
5655 10 114.480
5685 10 97.798
5600 10 252.584
5630 10 95.222
5660 10 139.487
5597.5 5 509.252
5612.5 5 766.549
5627.5 5 166.190
5642.5 5 142.628
5657.5 5 327.982
5672.5 5 268.135
5687.5 5 126.606
5602.5 5 889.071
5617.5 5 390.186
5632.5 5 153.938
5647.5 5 196.035
5662.5 5 367.880
5677.5 5 202.947
5692.5 5 171.217
5607.5 5 532.186
5622.5 5 490.088
5637.5 5 159.279
5652.5 5 273.004
5667.5 5 361.283
5682.5 5 141.058
5680 120 33.175
5700 120 34.645
5720 120 37.699
5670 100 27.018
5690 100 29.688
5710 100 32.044
5730 100 27.269
5750 100 28.651
5700 80 26.138
5720 80 24.404
5740 80 19.955
5760 80 25.007
5780 80 29.933
5770 60 26.672
5790 60 29.839
5810 60 30.442
5730 60 20.716
5750 60 19.208
5800 40 29.003
5820 40 32.044
5840 40 19.981
5760 40 25.661
5780 40 24.819
5830 20 26.641
5790 20 35.500
5850 20 20.496
5810 20 40.275
5870 20 12.811
5735 30 29.782
5745 30 33.383
5665 30 32.204
5755 30 31.762
5675 30 29.594
5685 30 28.369
5695 30 26.861
5705 30 30.159
5715 30 30.527
5725 30 29.716
5700 20 54.852
5760 20 43.354
5720 20 41.720
5680 20 34.495
5740 20 39.144
5712.5 15 52.543
5757.5 15 54.051
5717.5 15 54.287
5762.5 15 50.281
5722.5 15 61.450
5767.5 15 48.726
5682.5 15 52.873
5727.5 15 55.182
5772.5 15 54.852
5687.5 15 63.617
5732.5 15 56.502
5777.5 15 52.213
5692.5 15 69.272
5737.5 15 52.449
5697.5 15 75.068
5742.5 15 53.250
5702.5 15 67.906
5747.5 15 55.371
5707.5 15 60.837
5752.5 15 66.916
5705 10 80.519
5735 10 94.939
5765 10 78.728
5710 10 103.201
5740 10 88.027
5770 10 69.806
5715 10 95.944
5745 10 111.621
5775 10 77.126
5690 10 112.815
5720 10 76.686
5750 10 104.301
5780 10 61.292
5695 10 107.851
5725 10 96.227
5755 10 96.698
5785 10 53.564
5700 10 86.708
5730 10 114.165
5760 10 83.284
5697.5 5 212.058
5712.5 5 231.850
5727.5 5 165.876
5742.5 5 181.898
5757.5 5 214.257
5772.5 5 95.504
5787.5 5 71.314
5702.5 5 214.885
5717.5 5 201.062
5732.5 5 151.425
5747.5 5 257.925
5762.5 5 141.843
5777.5 5 85.608
5792.5 5 75.398
5707.5 5 261.538
5722.5 5 177.186
5737.5 5 183.155
5752.5 5 193.522
5767.5 5 114.354
5782.5 5 76.027
5780 120 37.058
5800 120 34.268
5820 120 31.177
5770 100 26.452
5790 100 25.981
5810 100 28.243
5830 100 28.023
5850 100 36.851
5800 80 25.108
5820 80 23.047
5840 80 20.106
5860 80 33.678
5880 80 30.637
5870 60 22.469
5890 60 25.372
5910 60 20.508
5830 60 21.338
5850 60 16.795
5900 40 17.354
5920 40 10.418
5940 40 17.090
5860 40 14.577
5880 40 15.268
5930 20 18.385
5890 20 22.902
5950 20 19.604
5910 20 19.930
5970 20 12.441
5835 30 22.996
5845 30 21.036
5765 30 28.274
5855 30 20.640
5775 30 24.391
5785 30 24.768
5795 30 29.123
5805 30 30.159
5815 30 28.293
5825 30 23.562
5800 20 39.710
5860 20 22.054
5820 20 29.217
5780 20 34.181
5840 20 26.075
5812.5 15 38.170
5857.5 15 27.049
5817.5 15 36.568
5862.5 15 28.369
5822.5 15 38.642
5867.5 15 26.295
5782.5 15 46.181
5827.5 15 43.967
5872.5 15 21.159
5787.5 15 39.443
5832.5 15 34.777
5877.5 15 21.865
5792.5 15 44.155
5837.5 15 29.782
5797.5 15 56.313
5842.5 15 26.766
5802.5 15 56.219
5847.5 15 26.578
5807.5 15 48.726
5852.5 15 24.787
5805 10 74.958
5835 10 48.789
5865 10 38.673
5810 10 57.460
5840 10 51.114
5870 10 44.925
5815 10 53.533
5845 10 44.611
5875 10 33.458
5790 10 54.255
5820 10 68.707
5850 10 48.820
5880 10 36.254
5795 10 62.078
5825 10 64.403
5855 10 40.307
5885 10 48.569
5800 10 74.990
5830 10 58.308
5860 10 38.265
5797.5 5 73.042
5812.5 5 104.301
5827.5 5 165.876
5842.5 5 135.403
5857.5 5 127.235
5872.5 5 86.080
5887.5 5 125.035
5802.5 5 98.960
5817.5 5 127.706
5832.5 5 178.128
5847.5 5 120.009
5862.5 5 106.186
5877.5 5 67.230
5892.5 5 137.288
5807.5 5 92.834
5822.5 5 167.133
5837.5 5 149.854
5852.5 5 121.265
5867.5 5 99.274
5882.5 5 116.867
5880 120 33.552
5900 120 33.175
5920 120 34.683
5870 100 26.389
5890 100 24.991
5910 100 27.835
5930 100 27.583
5950 100 36.411
5900 80 20.860
5920 80 23.122
5940 80 18.824
5960 80 27.344
5980 80 21.840
5970 60 18.736
5990 60 18.812
6010 60 25.013
5930 60 16.116
5950 60 13.873
6000 40 15.984
6020 40 17.530
6040 40 11.159
5960 40 11.875
5980 40 25.133
6030 20 12.629
5990 20 17.254
6050 20 21.419
6010 20 15.444
6070 20 16.921
5935 30 15.834
5945 30 16.927
5865 30 16.163
5955 30 16.116
5875 30 16.880
5885 30 16.277
5895 30 17.445
5905 30 17.342
5915 30 16.804
5925 30 14.137
5900 20 25.082
5960 20 14.169
5920 20 19.258
5880 20 18.108
5940 20 20.961
5912.5 15 30.866
5957.5 15 23.232
5917.5 15 30.112
5962.5 15 18.897
5922.5 15 30.018
5967.5 15 18.991
5882.5 15 23.515
5927.5 15 30.206
5972.5 15 17.342
5887.5 15 26.154
5932.5 15 28.463
5977.5 15 20.876
5892.5 15 32.940
5937.5 15 29.264
5897.5 15 33.317
5942.5 15 27.049
5902.5 15 29.028
5947.5 15 30.018
5907.5 15 29.735
5952.5 15 24.740
5905 10 60.633
5935 10 54.507
5965 10 34.526
5910 10 47.030
5940 10 56.172
5970 10 25.070
5915 10 54.569
5945 10 55.512
5975 10 35.563
5890 10 45.208
5920 10 70.623
5950 10 41.815
5980 10 33.898
5895 10 41.500
5925 10 61.952
5955 10 45.239
5985 10 23.311
5900 10 64.748
5930 10 52.527
5960 10 45.208
5897.5 5 157.394
5912.5 5 130.062
5927.5 5 103.987
5942.5 5 142.314
5957.5 5 87.965
5972.5 5 84.509
5987.5 5 86.865
5902.5 5 141.058
5917.5 5 132.261
5932.5 5 131.319
5947.5 5 122.836
5962.5 5 101.473
5977.5 5 70.058
5992.5 5 91.420
5907.5 5 148.911
5922.5 5 120.009
5937.5 5 117.496
5952.5 5 116.239
5967.5 5 53.627
5982.5 5 86.551
5980 120 31.554
6000 120 24.957
6020 120 28.651
5970 100 22.305
5990 100 19.761
6010 100 26.389
6030 100 28.714
6050 100 34.777
6000 80 20.106
6020 80 25.510
6040 80 24.027
6060 80 25.736
6080 80 23.273
6070 60 18.680
6090 60 15.815
6110 60 18.397
6030 60 18.359
6050 60 16.211
6100 40 14.363
6120 40 15.582
6140 40 14.715
6060 40 14.363
6080 40 14.326
6130 20 18.473
6090 20 20.546
6150 20 20.043
6110 20 18.171
6170 20 16.902
6035 30 14.552
6045 30 15.739
5965 30 12.855
6055 30 15.570
5975 30 13.204
5985 30 16.654
5995 30 17.059
6005 30 16.116
6015 30 15.146
6025 30 13.666
6000 20 18.089
6060 20 17.480
6020 20 14.571
5980 20 15.714
6040 20 19.635
6012.5 15 17.252
6057.5 15 22.337
6017.5 15 18.072
6062.5 15 22.855
6022.5 15 16.475
6067.5 15 24.363
5982.5 15 19.179
6027.5 15 18.991
6072.5 15 25.683
5987.5 15 18.850
6032.5 15 20.499
6077.5 15 26.248
5992.5 15 15.551
6037.5 15 23.468
5997.5 15 18.793
6042.5 15 22.996
6002.5 15 19.321
6047.5 15 23.232
6007.5 15 19.179
6052.5 15 22.808
6005 10 24.756
6035 10 29.185
6065 10 34.149
6010 10 25.227
6040 10 31.385
6070 10 34.463
6015 10 22.368
6045 10 30.976
6075 10 37.762
5990 10 23.248
6020 10 21.331
6050 10 30.976
6080 10 40.024
5995 10 25.321
6025 10 25.196
6055 10 33.961
6085 10 40.684
6000 10 24.065
6030 10 27.992
6060 10 35.406
5997.5 5 83.409
6012.5 5 60.554
6027.5 5 36.537
6042.5 5 61.827
6057.5 5 57.146
6072.5 5 60.758
6087.5 5 77.597
6002.5 5 80.111
6017.5 5 38.485
6032.5 5 45.459
6047.5 5 52.575
6062.5 5 54.774
6077.5 5 71.000
6092.5 5 75.712
6007.5 5 57.978
6022.5 5 40.369
6037.5 5 46.700
6052.5 5 58.779
6067.5 5 64.088
6082.5 5 73.827
6080 120 33.062
6100 120 32.421
6120 120 32.421
6070 100 27.458
6090 100 29.437
6110 100 24.504
6130 100 26.609
6150 100 31.762
6100 80 20.106
6120 80 22.142
6140 80 22.619
6160 80 24.228
6180 80 24.127
6170 60 18.190
6190 60 16.192
6210 60 17.926
6130 60 17.907
6150 60 18.265
6200 40 17.593
6220 40 15.595
6240 40 15.896
6160 40 11.850
6180 40 15.419
6230 20 18.912
6190 20 21.488
6250 20 24.498
6210 20 18.152
6270 20 22.299
6135 30 15.645
6145 30 16.559
6065 30 14.373
6155 30 14.891
6075 30 12.667
6085 30 15.457
6095 30 16.041
6105 30 16.116
6115 30 15.362
6125 30 16.003
6100 20 19.227
6160 20 18.284
6120 20 18.165
6080 20 20.288
6140 20 18.988
6112.5 15 23.750
6157.5 15 23.091
6117.5 15 23.609
6162.5 15 21.488
6122.5 15 21.630
6167.5 15 20.405
6082.5 15 27.332
6127.5 15 22.902
6172.5 15 19.038
6087.5 15 26.107
6132.5 15 21.347
6177.5 15 21.064
6092.5 15 25.164
6137.5 15 22.761
6097.5 15 24.881
6142.5 15 20.546
6102.5 15 24.740
6147.5 15 21.441
6107.5 15 25.918
6152.5 15 21.865
6105 10 40.212
6135 10 30.411
6165 10 26.546
6110 10 36.725
6140 10 26.892
6170 10 23.468
6115 10 35.971
6175 10 23.625
6090 10 39.207
6120 10 31.385
6150 10 25.950
6180 10 27.458
6095 10 41.186
6125 10 30.819
6155 10 1718.451
6185 10 28.620
6100 10 39.961
6130 10 30.442
6160 10 26.201
6097.5 5 71.942
6112.5 5 82.310
6127.5 5 47.155
6142.5 5 38.579
6157.5 5 31.008
6172.5 5 29.751
6187.5 5 33.772
6102.5 5 74.770
6117.5 5 61.340
6132.5 5 50.548
6147.5 5 34.133
6162.5 5 31.259
6177.5 5 26.939
6192.5 5 38.563
6107.5 5 65.659
6122.5 5 71.314
6137.5 5 39.506
6152.5 5 35.767
6167.5 5 27.662
6182.5 5 37.039
